 "Time [d]","2-Liquid Pressure [Pa] Obs_pt_center (21101) (-0.5 -0.5 -5.25)","3-Liquid Saturation Obs_pt_center (21101) (-0.5 -0.5 -5.25)","4-Total Tracer [M] Obs_pt_center (21101) (-0.5 -0.5 -5.25)","5-qlx [m/d] Obs_pt_center (21101) (-0.5 -0.5 -5.25)","6-qly [m/d] Obs_pt_center (21101) (-0.5 -0.5 -5.25)","7-qlz [m/d] Obs_pt_center (21101) (-0.5 -0.5 -5.25)"
  0.000000E+00  5.488524E+04  2.894568E-01  6.600000E-01  0.000000E+00  0.000000E+00  0.000000E+00
  1.000000E-02  5.488524E+04  2.894568E-01  6.600000E-01  3.780745E-05 -7.026159E-18 -3.208282E-07
  3.000000E-02  5.488525E+04  2.894569E-01  6.600000E-01  3.780450E-05  6.674857E-16 -1.335372E-07
  7.000000E-02  5.488570E+04  2.894586E-01  6.600000E-01  3.770527E-05 -1.313246E-13  4.297752E-06
  1.500000E-01  5.489037E+04  2.894768E-01  6.600000E-01  3.677751E-05  4.772700E-13  2.976438E-05
  3.100000E-01  5.491125E+04  2.895583E-01  6.600000E-01  3.282873E-05  1.141927E-12  8.928668E-05
  6.300000E-01  5.495678E+04  2.897362E-01  6.600000E-01  2.443313E-05  1.028243E-12  1.404210E-04
  1.270000E+00  5.501112E+04  2.899489E-01  6.600000E-01  1.455252E-05  5.095873E-13  1.311128E-04
  2.550000E+00  5.505362E+04  2.901156E-01  6.600000E-01  7.213033E-06  2.152649E-13  7.654709E-05
  5.110000E+00  5.508618E+04  2.902434E-01  6.600000E-01  2.921360E-06  1.403183E-12  2.136808E-06
  7.000000E+00  5.510655E+04  2.903235E-01  6.600000E-01  2.558994E-06  3.583938E-13 -3.477672E-05
  8.000000E+00  5.511767E+04  2.903673E-01  6.600000E-01  2.237293E-06  1.691693E-13 -5.371343E-05
  9.000000E+00  5.513220E+04  2.904245E-01  6.600000E-01 -1.709377E-06 -4.824006E-06 -7.808110E-05
  1.000000E+01  5.515778E+04  2.905253E-01  6.600000E-01 -1.643719E-05 -2.399528E-05 -1.204476E-04
  1.200000E+01  5.527424E+04  2.909854E-01  6.600000E-01 -9.184120E-05 -1.231213E-04 -3.132051E-04
  1.500000E+01  5.538881E+04  2.914402E-01  6.600000E-01 -1.289814E-04 -1.712043E-04 -5.064930E-04
  1.800000E+01  5.541928E+04  2.915616E-01  6.600000E-01 -1.107282E-04 -1.461333E-04 -5.595026E-04
  2.100000E+01  5.540813E+04  2.915172E-01  6.600000E-01 -8.084352E-05 -1.057696E-04 -5.415022E-04
  2.612000E+01  5.537112E+04  2.913699E-01  6.600000E-01 -4.592557E-05 -5.836370E-05 -4.788580E-04
  2.700000E+01  5.536464E+04  2.913441E-01  6.600000E-01 -4.055348E-05 -5.105636E-05 -4.678858E-04
  3.724000E+01  5.532462E+04  2.911852E-01  6.600000E-01 -1.752335E-05 -1.910665E-05 -3.992464E-04
  4.100000E+01  5.531424E+04  2.911440E-01  6.600000E-01 -1.243964E-05 -1.194702E-05 -3.814189E-04
